LabVIEW Measurement	
Writer_Version	2
Reader_Version	2
Separator	Tab
Decimal_Separator	.
Multi_Headings	Yes
X_Columns	One
Time_Pref	Absolute
Operator	labuser
Date	2023/05/24
Time	11:24:41.2669867874998661052
***End_of_Header***	
	
Channels	1	
Samples	610	
Date	2023/05/24	
Time	11:24:41.2669867874998661052	
Y_Unit_Label	Volts	
X_Dimension	Time	
X0	0.0000000000000000E+0	
Delta_X	0.008197	
***End_of_Header***		
X_Value	Voltage	Comment
0.000000	1.698803
0.008197	1.664083
0.016393	1.683832
0.024590	1.664401
0.032787	1.680647
0.040984	1.687973
0.049180	1.680010
0.057377	1.676506
0.065574	1.706130
0.073770	1.665675
0.081967	1.687017
0.090164	1.663446
0.098361	1.678417
0.106557	1.693070
0.114754	1.690521
0.122951	1.689247
0.131147	1.678098
0.139344	1.691796
0.147541	1.672365
0.155738	1.679373
0.163934	1.686699
0.172131	1.693070
0.180328	1.700396
0.188524	1.672365
0.196721	1.676824
0.204918	1.666312
0.213115	1.686380
0.221311	1.698485
0.229508	1.701989
0.237705	1.672683
0.245901	1.705493
0.254098	1.689247
0.262295	1.671409
0.270492	1.697848
0.278688	1.701352
0.286885	1.680328
0.295082	1.675550
0.303278	1.698485
0.311475	1.689884
0.319672	1.696892
0.327869	1.701989
0.336065	1.655801
0.344262	1.678735
0.352459	1.703263
0.360655	1.673639
0.368852	1.710271
0.377049	1.671728
0.385245	1.673639
0.393442	1.687973
0.401639	1.694981
0.409836	1.665357
0.418032	1.684151
0.426229	1.688929
0.434426	1.657712
0.442622	1.644652
0.450819	1.678098
0.459016	1.694981
0.467213	1.653252
0.475409	1.695937
0.483606	1.661534
0.491803	1.665675
0.499999	1.682558
0.508196	1.683514
0.516393	1.705493
0.524590	1.672046
0.532786	1.672683
0.540983	1.676187
0.549180	1.686062
0.557376	1.696892
0.565573	1.675232
0.573770	1.674594
0.581967	1.704537
0.590163	1.682239
0.598360	1.680965
0.606557	1.686062
0.614753	1.685106
0.622950	1.686062
0.631147	1.682876
0.639344	1.675869
0.647540	1.702307
0.655737	1.691477
0.663934	1.700078
0.672130	1.640829
0.680327	1.678098
0.688524	1.705493
0.696721	1.688929
0.704917	1.684788
0.713114	1.665994
0.721311	1.677143
0.729507	1.687336
0.737704	1.657075
0.745901	1.677143
0.754098	1.694344
0.762294	1.690521
0.770491	1.673002
0.778688	1.686380
0.786884	1.680965
0.795081	1.657393
0.803278	1.694344
0.811475	1.689884
0.819671	1.697529
0.827868	1.669816
0.836065	1.650067
0.844261	1.684469
0.852458	1.698166
0.860655	1.691158
0.868852	1.690840
0.877048	1.687655
0.885245	1.694662
0.893442	1.690521
0.901638	1.674913
0.909835	1.692114
0.918032	1.644652
0.926229	1.676187
0.934425	1.686699
0.942622	1.694025
0.950819	1.685106
0.959015	1.682558
0.967212	1.674913
0.975409	1.696255
0.983606	1.665357
0.991802	1.674276
0.999999	1.689884
1.008196	1.692114
1.016392	1.694981
1.024589	1.687336
1.032786	1.680647
1.040982	1.679691
1.049179	1.680647
1.057376	1.686380
1.065573	1.667587
1.073769	1.687655
1.081966	1.701670
1.090163	1.671091
1.098359	1.703900
1.106556	1.663446
1.114753	1.637963
1.122950	1.692751
1.131146	1.687336
1.139343	1.671409
1.147540	1.690521
1.155736	1.673320
1.163933	1.705174
1.172130	1.675232
1.180327	1.687655
1.188523	1.690203
1.196720	1.714093
1.204917	1.671091
1.213113	1.664083
1.221310	1.677461
1.229507	1.693388
1.237704	1.696892
1.245900	1.681284
1.254097	1.700396
1.262294	1.677461
1.270490	1.694344
1.278687	1.708359
1.286884	1.692433
1.295081	1.660260
1.303277	1.659305
1.311474	1.684788
1.319671	1.695618
1.327867	1.674276
1.336064	1.675232
1.344261	1.694981
1.352458	1.687973
1.360654	1.653252
1.368851	1.653571
1.377048	1.691796
1.385244	1.675869
1.393441	1.674913
1.401638	1.687973
1.409835	1.669816
1.418031	1.681602
1.426228	1.690521
1.434425	1.663446
1.442621	1.662171
1.450818	1.668224
1.459015	1.710589
1.467212	1.671091
1.475408	1.643059
1.483605	1.691796
1.491802	1.693707
1.499998	1.683514
1.508195	1.672683
1.516392	1.680965
1.524589	1.677461
1.532785	1.700715
1.540982	1.703263
1.549179	1.689566
1.557375	1.689247
1.565572	1.691477
1.573769	1.683514
1.581966	1.693707
1.590162	1.662809
1.598359	1.683195
1.606556	1.707085
1.614752	1.675869
1.622949	1.682558
1.631146	1.686699
1.639342	1.680965
1.647539	1.679691
1.655736	1.683195
1.663933	1.685106
1.672129	1.706448
1.680326	1.653252
1.688523	1.673320
1.696719	1.698485
1.704916	1.665038
1.713113	1.666312
1.721310	1.680965
1.729506	1.653571
1.737703	1.683514
1.745900	1.680647
1.754096	1.699122
1.762293	1.646563
1.770490	1.694981
1.778687	1.658349
1.786883	1.698485
1.795080	1.686062
1.803277	1.659305
1.811473	1.695937
1.819670	1.689566
1.827867	1.672046
1.836064	1.674594
1.844260	1.694662
1.852457	1.692114
1.860654	1.683514
1.868850	1.682239
1.877047	1.683514
1.885244	1.698485
1.893441	1.701989
1.901637	1.684151
1.909834	1.689884
1.918031	1.687336
1.926227	1.694662
1.934424	1.655164
1.942621	1.719190
1.950818	1.674276
1.959014	1.674594
1.967211	1.684151
1.975408	1.680328
1.983604	1.660897
1.991801	1.691796
1.999998	1.697211
2.008195	1.695299
2.016391	1.694662
2.024588	1.651023
2.032785	1.672046
2.040981	1.692751
2.049178	1.679691
2.057375	1.686062
2.065572	1.693707
2.073768	1.687336
2.081965	1.681284
2.090162	1.700715
2.098358	1.681284
2.106555	1.661853
2.114752	1.680647
2.122949	1.702944
2.131145	1.695618
2.139342	1.677143
2.147539	1.665038
2.155735	1.724605
2.163932	1.702944
2.172129	1.694981
2.180326	1.686699
2.188522	1.659623
2.196719	1.695937
2.204916	1.691477
2.213112	1.666631
2.221309	1.686062
2.229506	1.671409
2.237703	1.662171
2.245899	1.629362
2.254096	1.687655
2.262293	1.663127
2.270489	1.711226
2.278686	1.623947
2.286883	1.656438
2.295079	1.691158
2.303276	1.655164
2.311473	1.681921
2.319670	1.688929
2.327866	1.665994
2.336063	1.689884
2.344260	1.664401
2.352456	1.675232
2.360653	1.682876
2.368850	1.689247
2.377047	1.677461
2.385243	1.669816
2.393440	1.678417
2.401637	1.682876
2.409833	1.696892
2.418030	1.681284
2.426227	1.697529
2.434424	1.661853
2.442620	1.664083
2.450817	1.696892
2.459014	1.694662
2.467210	1.689247
2.475407	1.650067
2.483604	1.667905
2.491801	1.688610
2.499997	1.678098
2.508194	1.684151
2.516391	1.684469
2.524587	1.705174
2.532784	1.687973
2.540981	1.689566
2.549178	1.700715
2.557374	1.685425
2.565571	1.662171
2.573768	1.672365
2.581964	1.676506
2.590161	1.673957
2.598358	1.716960
2.606555	1.689884
2.614751	1.675232
2.622948	1.662171
2.631145	1.704856
2.639341	1.651978
2.647538	1.688929
2.655735	1.676824
2.663932	1.712182
2.672128	1.676187
2.680325	1.651023
2.688522	1.682239
2.696718	1.701670
2.704915	1.655482
2.713112	1.680965
2.721309	1.676187
2.729505	1.670772
2.737702	1.682876
2.745899	1.682558
2.754095	1.706448
2.762292	1.684788
2.770489	1.695937
2.778686	1.686380
2.786882	1.661216
2.795079	1.693070
2.803276	1.682239
2.811472	1.665994
2.819669	1.660260
2.827866	1.680965
2.836063	1.695618
2.844259	1.674594
2.852456	1.682876
2.860653	1.686699
2.868849	1.697529
2.877046	1.689566
2.885243	1.657075
2.893440	1.686699
2.901636	1.674276
2.909833	1.669816
2.918030	1.674913
2.926226	1.705493
2.934423	1.704218
2.942620	1.673957
2.950816	1.666631
2.959013	1.674276
2.967210	1.708997
2.975407	1.684469
2.983603	1.669498
2.991800	1.705174
2.999997	1.675550
3.008193	1.701670
3.016390	1.691477
3.024587	1.699122
3.032784	1.692751
3.040980	1.693388
3.049177	1.677143
3.057374	1.696892
3.065570	1.682239
3.073767	1.679373
3.081964	1.638281
3.090161	1.697529
3.098357	1.648156
3.106554	1.716641
3.114751	1.670135
3.122947	1.651978
3.131144	1.664401
3.139341	1.641785
3.147538	1.664401
3.155734	1.680328
3.163931	1.689566
3.172128	1.705811
3.180324	1.677780
3.188521	1.701989
3.196718	1.680010
3.204915	1.668542
3.213111	1.674594
3.221308	1.690840
3.229505	1.690521
3.237701	1.683195
3.245898	1.678098
3.254095	1.678735
3.262292	1.677143
3.270488	1.690203
3.278685	1.694025
3.286882	1.678735
3.295078	1.663446
3.303275	1.710908
3.311472	1.644652
3.319669	1.692433
3.327865	1.710589
3.336062	1.671409
3.344259	1.676824
3.352455	1.691796
3.360652	1.683514
3.368849	1.696892
3.377046	1.675232
3.385242	1.671728
3.393439	1.699122
3.401636	1.651978
3.409832	1.696892
3.418029	1.686062
3.426226	1.704856
3.434423	1.664401
3.442619	1.698803
3.450816	1.654845
3.459013	1.680328
3.467209	1.688929
3.475406	1.674276
3.483603	1.686699
3.491800	1.661534
3.499996	1.670135
3.508193	1.682239
3.516390	1.697848
3.524586	1.666631
3.532783	1.681602
3.540980	1.680010
3.549177	1.667587
3.557373	1.683195
3.565570	1.688292
3.573767	1.694025
3.581963	1.671409
3.590160	1.696255
3.598357	1.678098
3.606553	1.659623
3.614750	1.672683
3.622947	1.683195
3.631144	1.672365
3.639340	1.680965
3.647537	1.685106
3.655734	1.700715
3.663930	1.691796
3.672127	1.663446
3.680324	1.676506
3.688521	1.693707
3.696717	1.687336
3.704914	1.685743
3.713111	1.676506
3.721307	1.702626
3.729504	1.660579
3.737701	1.705811
3.745898	1.686062
3.754094	1.671409
3.762291	1.642104
3.770488	1.705493
3.778684	1.685425
3.786881	1.658668
3.795078	1.678417
3.803275	1.694025
3.811471	1.690521
3.819668	1.685106
3.827865	1.681602
3.836061	1.670772
3.844258	1.669498
3.852455	1.682239
3.860652	1.681921
3.868848	1.694025
3.877045	1.687655
3.885242	1.688292
3.893438	1.681602
3.901635	1.689247
3.909832	1.687017
3.918029	1.695937
3.926225	1.685425
3.934422	1.669498
3.942619	1.695618
3.950815	1.690521
3.959012	1.689247
3.967209	1.688610
3.975406	1.708997
3.983602	1.679373
3.991799	1.658668
3.999996	1.682558
4.008192	1.698166
4.016389	1.672683
4.024586	1.689247
4.032783	1.703263
4.040979	1.677461
4.049176	1.687017
4.057373	1.667268
4.065569	1.641467
4.073766	1.695937
4.081963	1.692751
4.090160	1.692114
4.098356	1.689247
4.106553	1.658668
4.114750	1.677143
4.122946	1.666631
4.131143	1.678417
4.139340	1.680965
4.147537	1.695937
4.155733	1.660579
4.163930	1.689566
4.172127	1.691158
4.180323	1.690203
4.188520	1.669816
4.196717	1.709315
4.204914	1.654208
4.213110	1.666950
4.221307	1.712500
4.229504	1.702307
4.237700	1.680647
4.245897	1.666631
4.254094	1.696892
4.262290	1.674594
4.270487	1.674594
4.278684	1.673320
4.286881	1.686380
4.295077	1.681921
4.303274	1.669816
4.311471	1.669498
4.319667	1.685106
4.327864	1.675869
4.336061	1.674913
4.344258	1.678735
4.352454	1.690203
4.360651	1.703900
4.368848	1.683832
4.377044	1.666631
4.385241	1.664401
4.393438	1.687973
4.401635	1.665994
4.409831	1.674276
4.418028	1.714412
4.426225	1.696574
4.434421	1.693707
4.442618	1.671728
4.450815	1.689247
4.459012	1.706448
4.467208	1.683195
4.475405	1.704856
4.483602	1.695299
4.491798	1.676506
4.499995	1.675232
4.508192	1.665038
4.516389	1.678417
4.524585	1.677780
4.532782	1.685743
4.540979	1.687973
4.549175	1.694025
4.557372	1.656438
4.565569	1.677143
4.573766	1.686062
4.581962	1.673639
4.590159	1.674594
4.598356	1.673320
4.606552	1.685425
4.614749	1.684788
4.622946	1.691477
4.631143	1.663446
4.639339	1.702626
4.647536	1.685425
4.655733	1.686062
4.663929	1.684788
4.672126	1.730657
4.680323	1.700078
4.688520	1.676824
4.696716	1.671409
4.704913	1.675869
4.713110	1.696892
4.721306	1.680965
4.729503	1.663764
4.737700	1.686380
4.745897	1.680328
4.754093	1.671091
4.762290	1.692751
4.770487	1.689247
4.778683	1.685106
4.786880	1.670135
4.795077	1.661853
4.803274	1.708678
4.811470	1.676187
4.819667	1.700078
4.827864	1.687655
4.836060	1.662171
4.844257	1.656438
4.852454	1.679691
4.860651	1.682558
4.868847	1.667905
4.877044	1.666312
4.885241	1.708359
4.893437	1.658030
4.901634	1.663127
4.909831	1.699122
4.918027	1.676187
4.926224	1.690521
4.934421	1.678417
4.942618	1.671409
4.950814	1.676824
4.959011	1.696574
4.967208	1.692433
4.975404	1.687973
4.983601	1.663446
4.991798	1.694025

