LabVIEW Measurement	
Writer_Version	2
Reader_Version	2
Separator	Tab
Decimal_Separator	.
Multi_Headings	Yes
X_Columns	One
Time_Pref	Absolute
Operator	labuser
Date	2023/05/24
Time	11:27:49.3159114874998407722
***End_of_Header***	
	
Channels	1	
Samples	610	
Date	2023/05/24	
Time	11:27:49.3159114874998407722	
Y_Unit_Label	Volts	
X_Dimension	Time	
X0	0.0000000000000000E+0	
Delta_X	0.008197	
***End_of_Header***		
X_Value	Voltage	Comment
0.000000	1.682239
0.008197	1.597190
0.016393	1.704218
0.024590	1.623628
0.032787	1.692114
0.040984	1.347137
0.049180	1.525837
0.057377	1.663127
0.065574	1.572025
0.073770	1.644015
0.081967	1.577759
0.090164	1.629362
0.098361	1.693388
0.106557	1.467545
0.114754	1.658986
0.122951	1.572344
0.131147	1.644970
0.139344	1.570433
0.147541	1.677461
0.155738	1.630318
0.163934	1.561832
0.172131	1.522970
0.180328	1.657075
0.188524	1.505132
0.196721	1.399059
0.204918	1.613435
0.213115	1.571070
0.221311	1.580307
0.229508	1.589863
0.237705	1.538579
0.245901	1.620443
0.254098	1.673957
0.262295	1.462767
0.270492	1.689566
0.278688	1.629999
0.286885	1.574892
0.295082	1.585404
0.303278	1.623947
0.311475	1.584130
0.319672	1.649430
0.327869	1.627132
0.336065	1.667905
0.344262	1.608976
0.352459	1.627132
0.360655	1.645289
0.368852	1.527430
0.377049	1.656438
0.385245	1.632547
0.393442	1.629999
0.401639	1.506088
0.409836	1.604198
0.418032	1.673320
0.426229	1.591456
0.434426	1.621717
0.442622	1.510547
0.450819	1.471049
0.459016	1.659305
0.467213	1.642422
0.475409	1.679691
0.483606	1.666312
0.491803	1.633185
0.499999	1.572025
0.508196	1.544949
0.516393	1.676506
0.524590	1.611205
0.532786	1.523289
0.540983	1.468500
0.549180	1.602923
0.557376	1.471367
0.565573	1.607064
0.573770	1.528704
0.581967	1.587952
0.590163	1.643696
0.598360	1.641467
0.606557	1.462130
0.614753	1.677461
0.622950	1.607064
0.631147	1.644015
0.639344	1.369435
0.647540	1.496213
0.655737	1.521696
0.663934	1.610568
0.672130	1.626177
0.680327	1.644333
0.688524	1.565973
0.696721	1.665357
0.704917	1.664401
0.713114	1.649111
0.721311	1.496213
0.729507	1.621399
0.737704	1.650704
0.745901	1.677780
0.754098	1.480923
0.762294	1.655801
0.770491	1.558328
0.778688	1.642422
0.786884	1.426453
0.795081	1.608339
0.803278	1.625221
0.811475	1.649111
0.819671	1.608976
0.827868	1.618850
0.836065	1.621717
0.844261	1.681284
0.852458	1.667268
0.860655	1.461174
0.868852	1.618213
0.877048	1.660579
0.885245	1.540490
0.893442	1.604835
0.901638	1.607064
0.909835	1.564380
0.918032	1.446840
0.926229	1.590182
0.934425	1.678417
0.942622	1.558965
0.950819	1.684151
0.959015	1.650704
0.967212	1.452573
0.975409	1.613754
0.983606	1.632229
0.991802	1.673002
0.999999	1.694344
1.008196	1.640829
1.016392	1.631273
1.024589	1.660260
1.032786	1.584130
1.040982	1.565336
1.049179	1.581581
1.057376	1.351597
1.065573	1.586359
1.073769	1.534438
1.081966	1.458626
1.090163	1.655801
1.098359	1.623628
1.106556	1.505451
1.114753	1.543675
1.122950	1.638918
1.131146	1.642422
1.139343	1.658349
1.147540	1.669498
1.155736	1.543038
1.163933	1.566610
1.172130	1.555780
1.180327	1.576803
1.188523	1.623628
1.196720	1.466589
1.204917	1.580307
1.213113	1.655164
1.221310	1.525519
1.229507	1.653889
1.237704	1.671409
1.245900	1.617895
1.254097	1.676187
1.262294	1.637326
1.270490	1.547179
1.278687	1.637326
1.286884	1.395874
1.295081	1.665038
1.303277	1.617576
1.311474	1.589863
1.319671	1.640829
1.327867	1.619806
1.336064	1.617258
1.344261	1.620124
1.352458	1.514688
1.360654	1.703900
1.368851	1.579989
1.377048	1.561513
1.385244	1.606109
1.393441	1.522015
1.401638	1.654208
1.409835	1.561195
1.418031	1.591456
1.426228	1.589226
1.434425	1.531889
1.442621	1.597508
1.450818	1.655801
1.459015	1.678417
1.467212	1.646245
1.475408	1.287252
1.483605	1.531889
1.491802	1.359560
1.499998	1.617258
1.508195	1.472323
1.516392	1.558965
1.524589	1.668861
1.532785	1.699122
1.540982	1.454485
1.549179	1.672365
1.557375	1.525837
1.565572	1.522015
1.573769	1.395237
1.581966	1.544949
1.590162	1.690840
1.598359	1.594323
1.606556	1.569795
1.614752	1.550365
1.622949	1.665675
1.631146	1.581581
1.639342	1.585085
1.647539	1.648474
1.655736	1.439513
1.663933	1.700078
1.672129	1.554187
1.680326	1.565017
1.688523	1.509910
1.696719	1.398422
1.704916	1.536349
1.713113	1.569477
1.721310	1.608339
1.729506	1.654527
1.737703	1.688610
1.745900	1.506725
1.754096	1.494620
1.762293	1.579033
1.770490	1.669179
1.778687	1.411482
1.786883	1.673639
1.795080	1.598782
1.803277	1.656438
1.811473	1.635096
1.819670	1.493665
1.827867	1.574255
1.836064	1.584767
1.844260	1.632866
1.852457	1.671409
1.860654	1.661216
1.868850	1.676506
1.877047	1.570433
1.885244	1.586678
1.893441	1.644652
1.901637	1.418490
1.909834	1.674913
1.918031	1.681602
1.926227	1.592730
1.934424	1.662171
1.942621	1.606746
1.950818	1.639237
1.959014	1.611205
1.967211	1.597190
1.975408	1.390140
1.983604	1.579670
1.991801	1.638918
1.999998	1.663127
2.008195	1.556417
2.016391	1.609294
2.024588	1.673002
2.032785	1.637326
2.040981	1.454485
2.049178	1.651660
2.057375	1.573299
2.065572	1.549090
2.073768	1.658986
2.081965	1.417216
2.090162	1.673957
2.098358	1.630955
2.106555	1.386636
2.114752	1.650704
2.122949	1.641467
2.131145	1.662171
2.139342	1.589545
2.147539	1.681921
2.155735	1.674913
2.163932	1.560876
2.172129	1.682558
2.180326	1.683832
2.188522	1.595597
2.196719	1.697529
2.204916	1.689884
2.213112	1.664083
2.221309	1.588589
2.229506	1.602923
2.237703	1.672046
2.245899	1.544949
2.254096	1.514051
2.262293	1.554187
2.270489	1.631273
2.278686	1.638281
2.286883	1.465634
2.295079	1.638600
2.303276	1.671091
2.311473	1.603879
2.319670	1.693070
2.327866	1.538260
2.336063	1.608339
2.344260	1.660579
2.352456	1.624903
2.360653	1.642422
2.368850	1.680328
2.377047	1.474234
2.385243	1.591138
2.393440	1.686062
2.401637	1.609613
2.409833	1.691477
2.418030	1.624584
2.426227	1.640192
2.434424	1.522333
2.442620	1.600375
2.450817	1.577759
2.459014	1.661216
2.467210	1.480923
2.475407	1.622036
2.483604	1.659942
2.491801	1.675869
2.499997	1.648156
2.508194	1.661534
2.516391	1.550683
2.524587	1.592730
2.532784	1.682239
2.540981	1.652297
2.549178	1.471049
2.557374	1.549409
2.565571	1.401289
2.573768	1.608976
2.581964	1.633822
2.590161	1.650386
2.598358	1.588589
2.606555	1.597190
2.614751	1.492391
2.622948	1.578396
2.631145	1.674276
2.639341	1.716004
2.647538	1.618213
2.655735	1.611524
2.663932	1.643059
2.672128	1.587315
2.680325	1.615983
2.688522	1.505451
2.696718	1.508955
2.704915	1.558965
2.713112	1.415623
2.721309	1.584448
2.729505	1.671728
2.737702	1.665357
2.745899	1.534756
2.754095	1.527111
2.762292	1.587952
2.770489	1.652297
2.778686	1.586359
2.786882	1.492072
2.795079	1.603560
2.803276	1.376443
2.811472	1.482198
2.819669	1.678735
2.827866	1.653889
2.836063	1.567566
2.844259	1.490480
2.852456	1.646245
2.860653	1.636688
2.868849	1.468819
2.877046	1.630955
2.885243	1.664720
2.893440	1.611842
2.901636	1.658986
2.909833	1.432506
2.918030	1.588589
2.926226	1.668224
2.934423	1.666312
2.942620	1.499717
2.950816	1.558647
2.959013	1.652297
2.967210	1.665357
2.975407	1.548772
2.983603	1.554187
2.991800	1.688929
2.999997	1.533801
3.008193	1.543357
3.016390	1.560558
3.024587	1.568203
3.032784	1.561513
3.040980	1.659942
3.049177	1.524245
3.057374	1.686062
3.065570	1.464041
3.073767	1.653571
3.081964	1.542083
3.090161	1.542083
3.098357	1.362746
3.106554	1.640192
3.114751	1.538579
3.122947	1.621080
3.131144	1.538579
3.139341	1.576803
3.147538	1.461174
3.155734	1.500991
3.163931	1.650386
3.172128	1.476145
3.180324	1.568840
3.188521	1.504177
3.196718	1.647837
3.204915	1.501628
3.213111	1.531571
3.221308	1.457033
3.229505	1.633503
3.237701	1.523926
3.245898	1.597508
3.254095	1.575211
3.262292	1.679691
3.270488	1.550046
3.278685	1.655482
3.286882	1.607383
3.295078	1.592093
3.303275	1.530615
3.311472	1.598464
3.319669	1.699122
3.327865	1.543675
3.336062	1.671409
3.344259	1.562151
3.352455	1.671409
3.360652	1.663127
3.368849	1.593367
3.377046	1.676506
3.385242	1.635414
3.393439	1.578077
3.401636	1.578715
3.409832	1.689247
3.418029	1.603560
3.426226	1.622036
3.434423	1.629362
3.442619	1.665994
3.450816	1.625221
3.459013	1.650067
3.467209	1.432187
3.475406	1.477101
3.483603	1.476782
3.491800	1.654845
3.499996	1.405430
3.508193	1.524563
3.516390	1.485064
3.524586	1.588908
3.532783	1.644652
3.540980	1.673639
3.549177	1.666950
3.557373	1.587315
3.565570	1.630955
3.573767	1.349686
3.581963	1.602605
3.590160	1.657712
3.598357	1.672046
3.606553	1.607383
3.614750	1.638600
3.622947	1.638600
3.631144	1.656119
3.639340	1.627769
3.647537	1.619806
3.655734	1.667905
3.663930	1.552594
3.672127	1.512777
3.680324	1.490480
3.688521	1.612798
3.696717	1.633503
3.704914	1.592730
3.713111	1.630955
3.721307	1.583493
3.729504	1.545587
3.737701	1.381221
3.745898	1.647519
3.754094	1.594004
3.762291	1.597190
3.770488	1.483790
3.778684	1.569477
3.786881	1.548772
3.795078	1.701033
3.803275	1.614391
3.811471	1.308276
3.819668	1.379947
3.827865	1.680647
3.836061	1.506406
3.844258	1.607701
3.852455	1.643696
3.860652	1.586678
3.868848	1.658986
3.877045	1.543357
3.885242	1.551957
3.893438	1.646882
3.901635	1.464678
3.909832	1.625858
3.918029	1.583493
3.926225	1.698485
3.934422	1.493346
3.942619	1.625858
3.950815	1.649430
3.959012	1.348093
3.967209	1.613435
3.975406	1.671728
3.983602	1.549728
3.991799	1.624265
3.999996	1.661534
4.008192	1.636370
4.016389	1.658668
4.024586	1.652297
4.032783	1.644333
4.040979	1.666950
4.049176	1.465634
4.057373	1.639237
4.065569	1.636688
4.073766	1.524245
4.081963	1.634140
4.090160	1.635414
4.098356	1.672365
4.106553	1.638281
4.114750	1.626814
4.122946	1.637326
4.131143	1.605472
4.139340	1.467545
4.147537	1.633503
4.155733	1.676506
4.163930	1.453529
4.172127	1.536349
4.180323	1.500354
4.188520	1.614709
4.196717	1.612161
4.204914	1.359879
4.213110	1.511503
4.221307	1.548135
4.229504	1.644333
4.237700	1.490161
4.245897	1.568203
4.254094	1.671409
4.262290	1.655482
4.270487	1.538260
4.278684	1.617895
4.286881	1.572981
4.295077	1.667905
4.303274	1.602923
4.311471	1.515325
4.319667	1.679373
4.327864	1.659942
4.336061	1.671728
4.344258	1.449707
4.352454	1.568203
4.360651	1.589545
4.368848	1.528704
4.377044	1.607701
4.385241	1.633503
4.393438	1.673957
4.401635	1.655164
4.409831	1.662809
4.418028	1.574255
4.426225	1.585404
4.434421	1.536668
4.442618	1.635733
4.450815	1.674594
4.459012	1.591456
4.467208	1.653889
4.475405	1.675232
4.483602	1.608020
4.491798	1.672046
4.499995	1.620443
4.508192	1.461811
4.516389	1.598782
4.524585	1.592730
4.532782	1.662171
4.540979	1.489842
4.549175	1.552594
4.557372	1.561513
4.565569	1.609613
4.573766	1.666312
4.581962	1.438876
4.590159	1.613435
4.598356	1.602605
4.606552	1.681284
4.614749	1.578077
4.622946	1.485064
4.631143	1.415305
4.639339	1.678098
4.647536	1.616621
4.655733	1.472323
4.663929	1.600694
4.672126	1.684151
4.680323	1.636051
4.688520	1.635414
4.696716	1.643696
4.704913	1.629044
4.713110	1.585085
4.721306	1.646882
4.729503	1.442380
4.737700	1.551320
4.745897	1.657075
4.754093	1.654208
4.762290	1.672046
4.770487	1.640511
4.778683	1.627451
4.786880	1.436328
4.795077	1.670453
4.803274	1.583811
4.811470	1.650067
4.819667	1.580944
4.827864	1.614709
4.836060	1.656438
4.844257	1.604835
4.852454	1.635414
4.860651	1.684151
4.868847	1.651660
4.877044	1.567884
4.885241	1.636051
4.893437	1.627132
4.901634	1.417853
4.909831	1.667268
4.918027	1.532845
4.926224	1.639874
4.934421	1.513414
4.942618	1.612161
4.950814	1.639555
4.959011	1.692114
4.967208	1.638281
4.975404	1.502902
4.983601	1.633503
4.991798	1.652297

