LabVIEW Measurement	
Writer_Version	2
Reader_Version	2
Separator	Tab
Decimal_Separator	.
Multi_Headings	Yes
X_Columns	One
Time_Pref	Absolute
Operator	labuser
Date	2023/05/24
Time	11:20:53.4768526874997574378
***End_of_Header***	
	
Channels	1	
Samples	610	
Date	2023/05/24	
Time	11:20:53.4768526874997574378	
Y_Unit_Label	Volts	
X_Dimension	Time	
X0	0.0000000000000000E+0	
Delta_X	0.008197	
***End_of_Header***		
X_Value	Voltage	Comment
0.000000	1.602605
0.008197	1.623947
0.016393	1.598145
0.024590	1.569795
0.032787	1.554506
0.040984	1.585722
0.049180	1.563106
0.057377	1.590182
0.065574	1.570433
0.073770	1.596871
0.081967	1.568203
0.090164	1.604198
0.098361	1.558647
0.106557	1.586041
0.114754	1.568521
0.122951	1.556098
0.131147	1.587634
0.139344	1.557691
0.147541	1.609613
0.155738	1.541764
0.163934	1.584130
0.172131	1.606109
0.180328	1.598145
0.188524	1.603560
0.196721	1.632229
0.204918	1.597190
0.213115	1.573299
0.221311	1.618850
0.229508	1.593049
0.237705	1.565336
0.245901	1.626177
0.254098	1.596871
0.262295	1.571388
0.270492	1.583174
0.278688	1.600057
0.286885	1.558965
0.295082	1.550046
0.303278	1.574255
0.311475	1.593686
0.319672	1.559284
0.327869	1.561832
0.336065	1.613117
0.344262	1.582537
0.352459	1.542083
0.360655	1.597190
0.368852	1.579033
0.377049	1.572344
0.385245	1.632547
0.393442	1.607701
0.401639	1.565017
0.409836	1.564380
0.418032	1.582218
0.426229	1.566929
0.434426	1.608339
0.442622	1.575848
0.450819	1.597508
0.459016	1.535075
0.467213	1.628406
0.475409	1.603879
0.483606	1.583174
0.491803	1.624265
0.499999	1.603879
0.508196	1.600375
0.516393	1.571070
0.524590	1.594323
0.532786	1.607064
0.540983	1.585404
0.549180	1.576166
0.557376	1.580307
0.565573	1.610887
0.573770	1.590819
0.581967	1.564380
0.590163	1.615665
0.598360	1.585722
0.606557	1.572981
0.614753	1.591456
0.622950	1.618213
0.631147	1.579033
0.639344	1.596871
0.647540	1.607064
0.655737	1.594960
0.663934	1.593686
0.672130	1.574574
0.680327	1.545587
0.688524	1.631592
0.696721	1.633503
0.704917	1.614709
0.713114	1.551320
0.721311	1.597190
0.729507	1.564062
0.737704	1.616939
0.745901	1.548453
0.754098	1.579352
0.762294	1.599738
0.770491	1.602286
0.778688	1.623310
0.786884	1.616302
0.795081	1.619806
0.803278	1.581900
0.811475	1.590500
0.819671	1.610887
0.827868	1.571070
0.836065	1.596553
0.844261	1.590819
0.852458	1.577440
0.860655	1.562151
0.868852	1.583174
0.877048	1.541446
0.885245	1.554506
0.893442	1.591775
0.901638	1.577440
0.909835	1.598145
0.918032	1.580307
0.926229	1.556735
0.934425	1.558010
0.942622	1.588908
0.950819	1.596871
0.959015	1.592093
0.967212	1.595916
0.975409	1.578396
0.983606	1.612798
0.991802	1.609294
0.999999	1.579989
1.008196	1.551957
1.016392	1.557372
1.024589	1.623628
1.032786	1.580626
1.040982	1.597508
1.049179	1.635733
1.057376	1.595597
1.065573	1.589545
1.073769	1.587952
1.081966	1.611205
1.090163	1.608020
1.098359	1.638600
1.106556	1.579352
1.114753	1.612798
1.122950	1.596871
1.131146	1.614072
1.139343	1.559602
1.147540	1.600375
1.155736	1.619169
1.163933	1.545268
1.172130	1.601649
1.180327	1.613754
1.188523	1.591456
1.196720	1.655164
1.204917	1.559921
1.213113	1.600694
1.221310	1.592412
1.229507	1.572025
1.237704	1.604198
1.245900	1.562788
1.254097	1.627451
1.262294	1.592412
1.270490	1.588589
1.278687	1.584130
1.286884	1.575529
1.295081	1.560239
1.303277	1.582537
1.311474	1.599101
1.319671	1.633822
1.327867	1.618213
1.336064	1.595916
1.344261	1.602286
1.352458	1.622036
1.360654	1.594323
1.368851	1.608339
1.377048	1.572344
1.385244	1.653571
1.393441	1.607383
1.401638	1.594323
1.409835	1.585404
1.418031	1.577759
1.426228	1.616302
1.434425	1.594960
1.442621	1.566292
1.450818	1.594641
1.459015	1.629044
1.467212	1.573618
1.475408	1.545587
1.483605	1.603242
1.491802	1.551639
1.499998	1.586359
1.508195	1.562788
1.516392	1.624584
1.524589	1.571707
1.532785	1.568203
1.540982	1.584767
1.549179	1.554187
1.557375	1.592412
1.565572	1.544312
1.573769	1.608020
1.581966	1.618850
1.590162	1.572344
1.598359	1.584448
1.606556	1.577440
1.614752	1.566929
1.622949	1.586041
1.631146	1.586678
1.639342	1.541764
1.647539	1.543994
1.655736	1.600057
1.663933	1.554824
1.672129	1.601331
1.680326	1.593686
1.688523	1.603560
1.696719	1.620124
1.704916	1.613754
1.713113	1.582218
1.721310	1.541764
1.729506	1.558647
1.737703	1.592093
1.745900	1.604198
1.754096	1.554506
1.762293	1.594641
1.770490	1.546861
1.778687	1.579033
1.786883	1.583174
1.795080	1.577759
1.803277	1.556417
1.811473	1.605790
1.819670	1.565654
1.827867	1.604198
1.836064	1.604198
1.844260	1.624584
1.852457	1.623310
1.860654	1.571707
1.868850	1.595916
1.877047	1.538260
1.885244	1.605472
1.893441	1.603879
1.901637	1.613117
1.909834	1.538260
1.918031	1.562151
1.926227	1.613435
1.934424	1.562788
1.942621	1.551002
1.950818	1.595597
1.959014	1.549090
1.967211	1.564380
1.975408	1.608339
1.983604	1.571707
1.991801	1.594323
1.999998	1.594004
2.008195	1.590500
2.016391	1.567247
2.024588	1.582537
2.032785	1.614709
2.040981	1.538260
2.049178	1.601649
2.057375	1.615028
2.065572	1.584767
2.073768	1.543357
2.081965	1.574574
2.090162	1.572025
2.098358	1.618850
2.106555	1.598782
2.114752	1.596871
2.122949	1.564062
2.131145	1.607383
2.139342	1.580944
2.147539	1.562151
2.155735	1.589545
2.163932	1.590182
2.172129	1.596871
2.180326	1.572662
2.188522	1.596553
2.196719	1.599419
2.204916	1.571388
2.213112	1.568840
2.221309	1.597190
2.229506	1.608976
2.237703	1.586678
2.245899	1.582218
2.254096	1.576166
2.262293	1.591138
2.270489	1.566929
2.278686	1.586678
2.286883	1.555780
2.295079	1.591456
2.303276	1.576166
2.311473	1.579033
2.319670	1.581263
2.327866	1.586997
2.336063	1.541127
2.344260	1.564062
2.352456	1.609613
2.360653	1.599419
2.368850	1.605472
2.377047	1.585085
2.385243	1.572981
2.393440	1.558328
2.401637	1.580626
2.409833	1.583174
2.418030	1.560239
2.426227	1.573299
2.434424	1.599419
2.442620	1.562469
2.450817	1.602286
2.459014	1.608657
2.467210	1.568203
2.475407	1.575529
2.483604	1.547179
2.491801	1.557372
2.499997	1.601012
2.508194	1.605790
2.516391	1.634777
2.524587	1.608657
2.532784	1.596553
2.540981	1.608020
2.549178	1.599419
2.557374	1.556735
2.565571	1.605790
2.573768	1.581263
2.581964	1.556098
2.590161	1.624265
2.598358	1.567884
2.606555	1.580944
2.614751	1.607701
2.622948	1.587315
2.631145	1.581581
2.639341	1.626177
2.647538	1.580307
2.655735	1.603879
2.663932	1.582856
2.672128	1.562788
2.680325	1.591456
2.688522	1.605790
2.696718	1.567247
2.704915	1.596553
2.713112	1.566610
2.721309	1.589226
2.729505	1.620443
2.737702	1.616939
2.745899	1.579989
2.754095	1.576803
2.762292	1.567247
2.770489	1.622036
2.778686	1.616302
2.786882	1.594960
2.795079	1.593367
2.803276	1.593367
2.811472	1.568521
2.819669	1.580307
2.827866	1.552276
2.836063	1.605153
2.844259	1.609294
2.852456	1.589226
2.860653	1.566292
2.868849	1.588908
2.877046	1.620762
2.885243	1.610887
2.893440	1.577440
2.901636	1.555461
2.909833	1.598145
2.918030	1.583174
2.926226	1.549728
2.934423	1.558647
2.942620	1.565336
2.950816	1.573936
2.959013	1.569158
2.967210	1.626495
2.975407	1.569477
2.983603	1.585085
2.991800	1.624903
2.999997	1.547179
3.008193	1.614072
3.016390	1.559284
3.024587	1.622354
3.032784	1.599738
3.040980	1.571388
3.049177	1.608976
3.057374	1.616621
3.065570	1.565017
3.073767	1.601649
3.081964	1.566929
3.090161	1.547498
3.098357	1.598145
3.106554	1.607064
3.114751	1.608020
3.122947	1.617895
3.131144	1.593049
3.139341	1.576166
3.147538	1.605790
3.155734	1.571707
3.163931	1.590500
3.172128	1.620124
3.180324	1.570751
3.188521	1.588271
3.196718	1.612480
3.204915	1.572025
3.213111	1.564699
3.221308	1.556098
3.229505	1.619487
3.237701	1.616621
3.245898	1.568521
3.254095	1.603242
3.262292	1.639555
3.270488	1.572344
3.278685	1.615665
3.286882	1.558965
3.295078	1.567247
3.303275	1.568840
3.311472	1.588908
3.319669	1.572981
3.327865	1.636688
3.336062	1.551639
3.344259	1.581900
3.352455	1.566292
3.360652	1.561195
3.368849	1.572344
3.377046	1.553869
3.385242	1.573936
3.393439	1.586678
3.401636	1.596871
3.409832	1.601012
3.418029	1.585404
3.426226	1.586997
3.434423	1.571388
3.442619	1.559602
3.450816	1.605153
3.459013	1.576803
3.467209	1.584130
3.475406	1.602286
3.483603	1.569795
3.491800	1.587952
3.499996	1.570751
3.508193	1.571707
3.516390	1.555780
3.524586	1.606427
3.532783	1.576166
3.540980	1.607383
3.549177	1.548772
3.557373	1.568840
3.565570	1.617895
3.573767	1.537623
3.581963	1.589226
3.590160	1.601968
3.598357	1.608339
3.606553	1.564062
3.614750	1.561513
3.622947	1.593049
3.631144	1.567247
3.639340	1.616621
3.647537	1.590500
3.655734	1.613117
3.663930	1.596553
3.672127	1.579670
3.680324	1.567566
3.688521	1.605153
3.696717	1.569158
3.704914	1.593367
3.713111	1.545905
3.721307	1.562151
3.729504	1.542401
3.737701	1.582537
3.745898	1.616302
3.754094	1.579989
3.762291	1.598145
3.770488	1.558647
3.778684	1.600057
3.786881	1.539853
3.795078	1.547816
3.803275	1.644333
3.811471	1.573299
3.819668	1.554187
3.827865	1.620124
3.836061	1.578396
3.844258	1.626814
3.852455	1.556098
3.860652	1.575211
3.868848	1.571707
3.877045	1.587634
3.885242	1.546542
3.893438	1.562788
3.901635	1.588271
3.909832	1.612798
3.918029	1.567884
3.926225	1.622354
3.934422	1.578715
3.942619	1.605790
3.950815	1.584448
3.959012	1.615665
3.967209	1.583174
3.975406	1.583493
3.983602	1.572662
3.991799	1.585085
3.999996	1.574574
4.008192	1.581900
4.016389	1.594323
4.024586	1.590819
4.032783	1.573618
4.040979	1.586041
4.049176	1.611524
4.057373	1.573936
4.065569	1.585085
4.073766	1.563425
4.081963	1.569477
4.090160	1.607383
4.098356	1.558965
4.106553	1.560876
4.114750	1.588908
4.122946	1.564380
4.131143	1.608976
4.139340	1.597190
4.147537	1.601649
4.155733	1.545905
4.163930	1.561832
4.172127	1.607701
4.180323	1.581581
4.188520	1.612161
4.196717	1.551957
4.204914	1.608976
4.213110	1.583493
4.221307	1.568203
4.229504	1.585404
4.237700	1.566929
4.245897	1.605472
4.254094	1.639555
4.262290	1.589863
4.270487	1.586678
4.278684	1.597827
4.286881	1.632866
4.295077	1.584130
4.303274	1.606746
4.311471	1.597508
4.319667	1.556417
4.327864	1.575211
4.336061	1.536986
4.344258	1.598464
4.352454	1.556417
4.360651	1.558965
4.368848	1.554824
4.377044	1.590500
4.385241	1.590182
4.393438	1.577759
4.401635	1.606427
4.409831	1.590819
4.418028	1.576166
4.426225	1.593049
4.434421	1.568840
4.442618	1.590182
4.450815	1.632547
4.459012	1.545268
4.467208	1.597508
4.475405	1.610250
4.483602	1.599419
4.491798	1.610887
4.499995	1.576803
4.508192	1.578715
4.516389	1.593049
4.524585	1.579033
4.532782	1.541127
4.540979	1.579033
4.549175	1.590500
4.557372	1.553550
4.565569	1.627451
4.573766	1.584767
4.581962	1.587315
4.590159	1.544949
4.598356	1.612798
4.606552	1.589545
4.614749	1.584767
4.622946	1.579033
4.631143	1.617895
4.639339	1.613754
4.647536	1.619169
4.655733	1.615665
4.663929	1.570114
4.672126	1.606746
4.680323	1.564699
4.688520	1.579352
4.696716	1.543994
4.704913	1.627451
4.713110	1.605790
4.721306	1.604198
4.729503	1.561832
4.737700	1.587952
4.745897	1.559921
4.754093	1.591138
4.762290	1.576803
4.770487	1.570433
4.778683	1.612161
4.786880	1.590182
4.795077	1.608020
4.803274	1.617895
4.811470	1.628088
4.819667	1.622991
4.827864	1.607383
4.836060	1.601968
4.844257	1.586359
4.852454	1.569795
4.860651	1.583174
4.868847	1.585722
4.877044	1.607701
4.885241	1.592730
4.893437	1.605790
4.901634	1.616939
4.909831	1.579352
4.918027	1.596871
4.926224	1.609613
4.934421	1.608657
4.942618	1.580626
4.950814	1.603879
4.959011	1.592730
4.967208	1.604198
4.975404	1.577759
4.983601	1.600375
4.991798	1.598782

