LabVIEW Measurement	
Writer_Version	2
Reader_Version	2
Separator	Tab
Decimal_Separator	.
Multi_Headings	Yes
X_Columns	One
Time_Pref	Absolute
Operator	labuser
Date	2023/05/24
Time	11:23:19.8137610874995829886
***End_of_Header***	
	
Channels	1	
Samples	610	
Date	2023/05/24	
Time	11:23:19.8137610874995829886	
Y_Unit_Label	Volts	
X_Dimension	Time	
X0	0.0000000000000000E+0	
Delta_X	0.008197	
***End_of_Header***		
X_Value	Voltage	Comment
0.000000	1.666950
0.008197	1.670772
0.016393	1.671409
0.024590	1.683514
0.032787	1.672046
0.040984	1.673957
0.049180	1.675232
0.057377	1.671409
0.065574	1.668542
0.073770	1.675869
0.081967	1.667268
0.090164	1.665994
0.098361	1.684469
0.106557	1.675550
0.114754	1.671728
0.122951	1.678417
0.131147	1.680328
0.139344	1.676187
0.147541	1.665357
0.155738	1.675869
0.163934	1.676187
0.172131	1.674594
0.180328	1.674594
0.188524	1.673639
0.196721	1.668224
0.204918	1.683832
0.213115	1.664720
0.221311	1.680965
0.229508	1.675869
0.237705	1.667268
0.245901	1.674276
0.254098	1.681602
0.262295	1.669179
0.270492	1.681284
0.278688	1.677143
0.286885	1.678098
0.295082	1.677143
0.303278	1.679691
0.311475	1.670135
0.319672	1.662809
0.327869	1.667905
0.336065	1.672046
0.344262	1.673639
0.352459	1.676187
0.360655	1.674276
0.368852	1.674594
0.377049	1.674913
0.385245	1.670772
0.393442	1.671091
0.401639	1.679054
0.409836	1.676506
0.418032	1.673639
0.426229	1.672365
0.434426	1.674594
0.442622	1.669498
0.450819	1.674913
0.459016	1.682876
0.467213	1.677143
0.475409	1.678417
0.483606	1.671409
0.491803	1.676824
0.499999	1.674276
0.508196	1.668861
0.516393	1.679373
0.524590	1.671409
0.532786	1.677461
0.540983	1.682558
0.549180	1.669816
0.557376	1.680647
0.565573	1.672683
0.573770	1.670772
0.581967	1.669179
0.590163	1.674276
0.598360	1.676506
0.606557	1.676506
0.614753	1.679054
0.622950	1.677780
0.631147	1.673639
0.639344	1.683195
0.647540	1.672046
0.655737	1.671409
0.663934	1.675869
0.672130	1.675869
0.680327	1.680328
0.688524	1.676506
0.696721	1.673320
0.704917	1.675869
0.713114	1.665357
0.721311	1.661534
0.729507	1.682876
0.737704	1.666950
0.745901	1.676187
0.754098	1.678417
0.762294	1.676187
0.770491	1.676187
0.778688	1.668861
0.786884	1.669498
0.795081	1.672365
0.803278	1.667587
0.811475	1.671091
0.819671	1.667268
0.827868	1.674276
0.836065	1.670772
0.844261	1.679373
0.852458	1.678417
0.860655	1.662171
0.868852	1.680010
0.877048	1.665675
0.885245	1.667905
0.893442	1.667268
0.901638	1.675232
0.909835	1.665675
0.918032	1.672365
0.926229	1.667587
0.934425	1.673957
0.942622	1.676187
0.950819	1.673639
0.959015	1.672365
0.967212	1.678417
0.975409	1.672683
0.983606	1.680328
0.991802	1.671409
0.999999	1.679691
1.008196	1.679373
1.016392	1.671728
1.024589	1.672046
1.032786	1.678417
1.040982	1.665038
1.049179	1.662490
1.057376	1.679054
1.065573	1.670772
1.073769	1.671728
1.081966	1.671409
1.090163	1.674276
1.098359	1.680647
1.106556	1.673002
1.114753	1.677143
1.122950	1.677143
1.131146	1.664401
1.139343	1.685106
1.147540	1.671728
1.155736	1.677780
1.163933	1.666950
1.172130	1.674913
1.180327	1.669816
1.188523	1.678735
1.196720	1.674594
1.204917	1.678735
1.213113	1.668861
1.221310	1.675550
1.229507	1.667587
1.237704	1.681921
1.245900	1.679373
1.254097	1.661534
1.262294	1.684469
1.270490	1.671728
1.278687	1.674913
1.286884	1.680328
1.295081	1.676187
1.303277	1.675869
1.311474	1.658030
1.319671	1.669816
1.327867	1.680647
1.336064	1.672683
1.344261	1.678735
1.352458	1.672683
1.360654	1.669498
1.368851	1.680010
1.377048	1.671728
1.385244	1.674594
1.393441	1.669816
1.401638	1.673320
1.409835	1.672365
1.418031	1.675869
1.426228	1.679054
1.434425	1.673639
1.442621	1.682239
1.450818	1.674594
1.459015	1.674276
1.467212	1.674913
1.475408	1.670453
1.483605	1.676187
1.491802	1.684151
1.499998	1.666950
1.508195	1.679373
1.516392	1.665038
1.524589	1.676187
1.532785	1.665675
1.540982	1.678735
1.549179	1.677143
1.557375	1.659305
1.565572	1.678098
1.573769	1.676187
1.581966	1.679054
1.590162	1.670135
1.598359	1.666312
1.606556	1.677461
1.614752	1.672365
1.622949	1.667905
1.631146	1.679691
1.639342	1.671409
1.647539	1.662809
1.655736	1.667905
1.663933	1.669816
1.672129	1.674594
1.680326	1.684151
1.688523	1.669179
1.696719	1.673957
1.704916	1.681921
1.713113	1.667587
1.721310	1.668861
1.729506	1.675232
1.737703	1.668542
1.745900	1.670772
1.754096	1.674594
1.762293	1.673002
1.770490	1.675232
1.778687	1.668224
1.786883	1.671728
1.795080	1.684469
1.803277	1.668224
1.811473	1.677461
1.819670	1.672365
1.827867	1.669498
1.836064	1.674594
1.844260	1.675869
1.852457	1.680010
1.860654	1.680965
1.868850	1.674276
1.877047	1.655482
1.885244	1.677780
1.893441	1.674594
1.901637	1.657712
1.909834	1.674594
1.918031	1.668861
1.926227	1.667905
1.934424	1.675550
1.942621	1.680965
1.950818	1.669498
1.959014	1.675869
1.967211	1.671728
1.975408	1.669498
1.983604	1.684788
1.991801	1.664083
1.999998	1.675869
2.008195	1.674594
2.016391	1.677461
2.024588	1.655801
2.032785	1.666631
2.040981	1.672046
2.049178	1.677143
2.057375	1.676187
2.065572	1.676187
2.073768	1.678098
2.081965	1.673320
2.090162	1.682876
2.098358	1.666950
2.106555	1.683195
2.114752	1.667587
2.122949	1.678735
2.131145	1.667587
2.139342	1.670772
2.147539	1.673639
2.155735	1.680328
2.163932	1.663127
2.172129	1.678417
2.180326	1.671728
2.188522	1.670772
2.196719	1.674276
2.204916	1.679691
2.213112	1.673639
2.221309	1.663764
2.229506	1.671409
2.237703	1.659305
2.245899	1.670453
2.254096	1.665675
2.262293	1.672683
2.270489	1.673320
2.278686	1.683195
2.286883	1.675869
2.295079	1.670772
2.303276	1.678417
2.311473	1.674276
2.319670	1.663764
2.327866	1.677143
2.336063	1.667905
2.344260	1.679691
2.352456	1.677780
2.360653	1.671091
2.368850	1.669179
2.377047	1.676506
2.385243	1.670772
2.393440	1.672046
2.401637	1.679373
2.409833	1.675232
2.418030	1.679054
2.426227	1.672683
2.434424	1.680010
2.442620	1.673639
2.450817	1.673320
2.459014	1.672365
2.467210	1.680328
2.475407	1.670453
2.483604	1.673639
2.491801	1.680010
2.499997	1.666950
2.508194	1.671409
2.516391	1.666312
2.524587	1.679691
2.532784	1.670135
2.540981	1.673639
2.549178	1.676187
2.557374	1.677461
2.565571	1.671409
2.573768	1.680647
2.581964	1.671091
2.590161	1.672365
2.598358	1.678735
2.606555	1.668861
2.614751	1.668224
2.622948	1.669179
2.631145	1.676187
2.639341	1.674594
2.647538	1.677780
2.655735	1.664720
2.663932	1.674276
2.672128	1.674276
2.680325	1.669498
2.688522	1.680965
2.696718	1.673002
2.704915	1.674913
2.713112	1.673957
2.721309	1.677461
2.729505	1.672046
2.737702	1.679373
2.745899	1.678735
2.754095	1.672365
2.762292	1.671091
2.770489	1.664401
2.778686	1.665038
2.786882	1.668861
2.795079	1.680010
2.803276	1.666950
2.811472	1.674594
2.819669	1.670135
2.827866	1.675550
2.836063	1.682558
2.844259	1.671728
2.852456	1.676506
2.860653	1.669816
2.868849	1.663764
2.877046	1.659623
2.885243	1.673320
2.893440	1.673957
2.901636	1.663446
2.909833	1.679054
2.918030	1.673320
2.926226	1.678098
2.934423	1.676824
2.942620	1.666950
2.950816	1.675232
2.959013	1.668861
2.967210	1.682876
2.975407	1.661534
2.983603	1.673002
2.991800	1.678735
2.999997	1.668861
3.008193	1.665357
3.016390	1.675869
3.024587	1.672683
3.032784	1.678417
3.040980	1.669498
3.049177	1.674276
3.057374	1.676506
3.065570	1.672365
3.073767	1.680010
3.081964	1.673639
3.090161	1.670135
3.098357	1.678417
3.106554	1.670453
3.114751	1.669816
3.122947	1.673639
3.131144	1.681921
3.139341	1.672365
3.147538	1.680647
3.155734	1.658986
3.163931	1.675232
3.172128	1.679691
3.180324	1.672365
3.188521	1.684469
3.196718	1.663764
3.204915	1.678098
3.213111	1.676187
3.221308	1.677143
3.229505	1.673320
3.237701	1.683514
3.245898	1.670135
3.254095	1.674276
3.262292	1.672365
3.270488	1.673639
3.278685	1.673957
3.286882	1.661853
3.295078	1.677461
3.303275	1.679373
3.311472	1.677143
3.319669	1.664720
3.327865	1.671091
3.336062	1.673320
3.344259	1.669816
3.352455	1.680965
3.360652	1.668542
3.368849	1.668542
3.377046	1.679691
3.385242	1.674594
3.393439	1.673320
3.401636	1.680328
3.409832	1.678417
3.418029	1.680010
3.426226	1.680010
3.434423	1.669179
3.442619	1.674594
3.450816	1.670453
3.459013	1.677143
3.467209	1.673639
3.475406	1.671409
3.483603	1.671728
3.491800	1.681284
3.499996	1.666950
3.508193	1.674594
3.516390	1.671409
3.524586	1.676187
3.532783	1.685106
3.540980	1.676506
3.549177	1.680647
3.557373	1.671091
3.565570	1.680010
3.573767	1.675869
3.581963	1.669498
3.590160	1.675232
3.598357	1.671409
3.606553	1.679054
3.614750	1.673957
3.622947	1.671091
3.631144	1.672046
3.639340	1.672683
3.647537	1.671728
3.655734	1.673002
3.663930	1.678735
3.672127	1.678735
3.680324	1.684151
3.688521	1.684151
3.696717	1.677780
3.704914	1.669179
3.713111	1.674594
3.721307	1.676506
3.729504	1.679691
3.737701	1.682876
3.745898	1.674913
3.754094	1.678417
3.762291	1.675232
3.770488	1.674276
3.778684	1.676506
3.786881	1.677461
3.795078	1.667905
3.803275	1.684151
3.811471	1.678735
3.819668	1.668542
3.827865	1.684151
3.836061	1.675550
3.844258	1.676824
3.852455	1.677143
3.860652	1.666631
3.868848	1.681921
3.877045	1.664083
3.885242	1.679373
3.893438	1.672365
3.901635	1.674276
3.909832	1.680965
3.918029	1.679691
3.926225	1.677143
3.934422	1.669179
3.942619	1.672046
3.950815	1.674594
3.959012	1.674276
3.967209	1.681921
3.975406	1.672046
3.983602	1.675869
3.991799	1.675550
3.999996	1.678098
4.008192	1.676187
4.016389	1.671728
4.024586	1.681284
4.032783	1.676187
4.040979	1.666312
4.049176	1.680010
4.057373	1.670772
4.065569	1.672683
4.073766	1.681921
4.081963	1.674913
4.090160	1.672683
4.098356	1.678417
4.106553	1.678735
4.114750	1.676824
4.122946	1.668224
4.131143	1.680328
4.139340	1.673957
4.147537	1.671728
4.155733	1.673320
4.163930	1.669816
4.172127	1.680965
4.180323	1.674913
4.188520	1.677780
4.196717	1.675550
4.204914	1.680010
4.213110	1.676187
4.221307	1.669179
4.229504	1.678098
4.237700	1.676187
4.245897	1.680647
4.254094	1.675869
4.262290	1.678735
4.270487	1.671728
4.278684	1.677143
4.286881	1.664720
4.295077	1.675232
4.303274	1.670772
4.311471	1.671728
4.319667	1.668861
4.327864	1.676824
4.336061	1.664401
4.344258	1.663764
4.352454	1.671728
4.360651	1.674594
4.368848	1.672365
4.377044	1.672046
4.385241	1.673639
4.393438	1.672046
4.401635	1.668224
4.409831	1.671091
4.418028	1.676187
4.426225	1.676506
4.434421	1.678735
4.442618	1.675232
4.450815	1.666950
4.459012	1.680965
4.467208	1.663764
4.475405	1.672683
4.483602	1.672683
4.491798	1.673320
4.499995	1.676506
4.508192	1.674594
4.516389	1.667268
4.524585	1.675550
4.532782	1.677461
4.540979	1.670772
4.549175	1.682239
4.557372	1.680965
4.565569	1.675232
4.573766	1.675869
4.581962	1.673957
4.590159	1.672046
4.598356	1.676506
4.606552	1.680965
4.614749	1.674594
4.622946	1.675550
4.631143	1.671409
4.639339	1.675869
4.647536	1.675550
4.655733	1.681602
4.663929	1.670135
4.672126	1.678417
4.680323	1.676506
4.688520	1.667268
4.696716	1.673320
4.704913	1.674594
4.713110	1.675869
4.721306	1.678735
4.729503	1.670135
4.737700	1.684469
4.745897	1.671091
4.754093	1.679691
4.762290	1.665675
4.770487	1.672365
4.778683	1.673320
4.786880	1.674276
4.795077	1.672046
4.803274	1.668542
4.811470	1.681602
4.819667	1.678417
4.827864	1.671728
4.836060	1.677461
4.844257	1.680328
4.852454	1.678098
4.860651	1.676506
4.868847	1.675869
4.877044	1.680965
4.885241	1.661216
4.893437	1.675232
4.901634	1.669816
4.909831	1.671409
4.918027	1.673320
4.926224	1.674276
4.934421	1.678098
4.942618	1.678735
4.950814	1.674913
4.959011	1.680010
4.967208	1.680647
4.975404	1.673639
4.983601	1.671091
4.991798	1.674913

